  DAB [m^2/s]     DBA [m^2/s]    Temperature [K]
  1.944885E-09   4.630013E-10   2.940000E+02
  1.952597E-09   4.658203E-10   2.942633E+02
  1.960327E-09   4.686515E-10   2.945267E+02
  1.968076E-09   4.714953E-10   2.947900E+02
  1.975842E-09   4.743517E-10   2.950533E+02
  1.983627E-09   4.772208E-10   2.953167E+02
  1.991431E-09   4.801022E-10   2.955800E+02
  1.999253E-09   4.829964E-10   2.958434E+02
  2.007093E-09   4.859031E-10   2.961067E+02
  2.014951E-09   4.888224E-10   2.963700E+02
  2.022828E-09   4.917544E-10   2.966334E+02
  2.030724E-09   4.946992E-10   2.968967E+02
  2.038637E-09   4.976567E-10   2.971600E+02
  2.046569E-09   5.006272E-10   2.974234E+02
  2.054519E-09   5.036103E-10   2.976867E+02
  2.062487E-09   5.066063E-10   2.979500E+02
  2.070474E-09   5.096152E-10   2.982134E+02
  2.078479E-09   5.126371E-10   2.984767E+02
  2.086503E-09   5.156719E-10   2.987401E+02
  2.094545E-09   5.187196E-10   2.990034E+02
  2.102605E-09   5.217803E-10   2.992667E+02
  2.110684E-09   5.248543E-10   2.995301E+02
  2.118781E-09   5.279411E-10   2.997934E+02
  2.126897E-09   5.310412E-10   3.000567E+02
  2.135031E-09   5.341542E-10   3.003201E+02
  2.143183E-09   5.372803E-10   3.005834E+02
  2.151354E-09   5.404198E-10   3.008467E+02
  2.159543E-09   5.435725E-10   3.011101E+02
  2.167751E-09   5.467385E-10   3.013734E+02
  2.175977E-09   5.499176E-10   3.016367E+02
  2.184222E-09   5.531102E-10   3.019001E+02
  2.192485E-09   5.563158E-10   3.021634E+02
  2.200766E-09   5.595351E-10   3.024268E+02
  2.209066E-09   5.627678E-10   3.026901E+02
  2.217384E-09   5.660139E-10   3.029534E+02
  2.225721E-09   5.692734E-10   3.032168E+02
  2.234077E-09   5.725465E-10   3.034801E+02
  2.242451E-09   5.758329E-10   3.037434E+02
  2.250843E-09   5.791332E-10   3.040068E+02
  2.259254E-09   5.824468E-10   3.042701E+02
  2.267684E-09   5.857741E-10   3.045334E+02
  2.276131E-09   5.891152E-10   3.047968E+02
  2.284598E-09   5.924699E-10   3.050601E+02
  2.293083E-09   5.958380E-10   3.053235E+02
  2.301586E-09   5.992204E-10   3.055868E+02
  2.310108E-09   6.026159E-10   3.058501E+02
  2.318648E-09   6.060257E-10   3.061135E+02
  2.327208E-09   6.094491E-10   3.063768E+02
  2.335785E-09   6.128867E-10   3.066401E+02
  2.344381E-09   6.163380E-10   3.069035E+02
  2.352996E-09   6.198032E-10   3.071668E+02
  2.361629E-09   6.232824E-10   3.074301E+02
  2.370280E-09   6.267752E-10   3.076935E+02
  2.378951E-09   6.302823E-10   3.079568E+02
  2.387640E-09   6.338036E-10   3.082202E+02
  2.396347E-09   6.373388E-10   3.084835E+02
  2.405073E-09   6.408885E-10   3.087468E+02
  2.413818E-09   6.444518E-10   3.090102E+02
  2.422581E-09   6.480295E-10   3.092735E+02
  2.431362E-09   6.516214E-10   3.095368E+02
  2.440163E-09   6.552274E-10   3.098002E+02
  2.448982E-09   6.588478E-10   3.100635E+02
  2.457819E-09   6.624824E-10   3.103268E+02
  2.466675E-09   6.661312E-10   3.105902E+02
  2.475550E-09   6.697944E-10   3.108535E+02
  2.484443E-09   6.734722E-10   3.111169E+02
  2.493355E-09   6.771643E-10   3.113802E+02
  2.502285E-09   6.808709E-10   3.116435E+02
  2.511235E-09   6.845918E-10   3.119069E+02
  2.520202E-09   6.883271E-10   3.121702E+02
  2.529189E-09   6.920771E-10   3.124335E+02
  2.538194E-09   6.958418E-10   3.126969E+02
  2.547218E-09   6.996208E-10   3.129602E+02
  2.556260E-09   7.034148E-10   3.132235E+02
  2.565321E-09   7.072231E-10   3.134869E+02
  2.574400E-09   7.110459E-10   3.137502E+02
  2.583499E-09   7.148837E-10   3.140135E+02
  2.592615E-09   7.187365E-10   3.142769E+02
  2.601750E-09   7.226036E-10   3.145402E+02
  2.610905E-09   7.264855E-10   3.148036E+02
  2.620078E-09   7.303827E-10   3.150669E+02
  2.629269E-09   7.342944E-10   3.153302E+02
  2.638479E-09   7.382211E-10   3.155936E+02
  2.647708E-09   7.421626E-10   3.158569E+02
  2.656956E-09   7.461188E-10   3.161202E+02
  2.666222E-09   7.500903E-10   3.163836E+02
  2.675506E-09   7.540770E-10   3.166469E+02
  2.684810E-09   7.580783E-10   3.169102E+02
  2.694132E-09   7.620951E-10   3.171736E+02
  2.703473E-09   7.661265E-10   3.174369E+02
  2.712833E-09   7.701736E-10   3.177003E+02
  2.722211E-09   7.742352E-10   3.179636E+02
  2.731608E-09   7.783125E-10   3.182269E+02
  2.741023E-09   7.824048E-10   3.184903E+02
  2.750458E-09   7.865124E-10   3.187536E+02
  2.759911E-09   7.906350E-10   3.190169E+02
  2.769383E-09   7.947734E-10   3.192803E+02
  2.778873E-09   7.989268E-10   3.195436E+02
  2.788382E-09   8.030956E-10   3.198069E+02
  2.797910E-09   8.072795E-10   3.200703E+02
  2.807456E-09   8.114792E-10   3.203336E+02
  2.817022E-09   8.156943E-10   3.205970E+02
  2.826606E-09   8.199250E-10   3.208603E+02
  2.836208E-09   8.241707E-10   3.211236E+02
  2.845829E-09   8.284323E-10   3.213870E+02
  2.855470E-09   8.327095E-10   3.216503E+02
  2.865129E-09   8.370022E-10   3.219136E+02
  2.874806E-09   8.413104E-10   3.221770E+02
  2.884503E-09   8.456347E-10   3.224403E+02
  2.894217E-09   8.499741E-10   3.227036E+02
  2.903951E-09   8.543295E-10   3.229670E+02
  2.913704E-09   8.587009E-10   3.232303E+02
  2.923475E-09   8.630874E-10   3.234937E+02
  2.933265E-09   8.674901E-10   3.237570E+02
  2.943074E-09   8.719088E-10   3.240203E+02
  2.952901E-09   8.763433E-10   3.242837E+02
  2.962747E-09   8.807932E-10   3.245470E+02
  2.972612E-09   8.852594E-10   3.248103E+02
  2.982496E-09   8.897417E-10   3.250737E+02
  2.992399E-09   8.942397E-10   3.253370E+02
  3.002319E-09   8.987537E-10   3.256003E+02
  3.012259E-09   9.032836E-10   3.258637E+02
  3.022218E-09   9.078297E-10   3.261270E+02
  3.032195E-09   9.123918E-10   3.263904E+02
  3.042191E-09   9.169703E-10   3.266537E+02
  3.052206E-09   9.215650E-10   3.269170E+02
  3.062240E-09   9.261754E-10   3.271804E+02
  3.072292E-09   9.308020E-10   3.274437E+02
  3.082363E-09   9.354452E-10   3.277070E+02
  3.092453E-09   9.401048E-10   3.279704E+02
  3.102562E-09   9.447804E-10   3.282337E+02
  3.112689E-09   9.494722E-10   3.284970E+02
  3.122836E-09   9.541804E-10   3.287604E+02
  3.133001E-09   9.589048E-10   3.290237E+02
  3.143184E-09   9.636462E-10   3.292870E+02
  3.153386E-09   9.684034E-10   3.295504E+02
  3.163607E-09   9.731774E-10   3.298137E+02
  3.173848E-09   9.779677E-10   3.300771E+02
  3.184106E-09   9.827746E-10   3.303404E+02
  3.194384E-09   9.875978E-10   3.306037E+02
  3.204680E-09   9.924379E-10   3.308671E+02
  3.214995E-09   9.972945E-10   3.311304E+02
  3.225329E-09   1.002168E-09   3.313937E+02
  3.235681E-09   1.007058E-09   3.316571E+02
  3.246053E-09   1.011964E-09   3.319204E+02
  3.256444E-09   1.016887E-09   3.321837E+02
  3.266852E-09   1.021827E-09   3.324471E+02
  3.277280E-09   1.026784E-09   3.327104E+02
  3.287727E-09   1.031758E-09   3.329738E+02
  3.298192E-09   1.036748E-09   3.332371E+02
  3.308676E-09   1.041756E-09   3.335004E+02
  3.319178E-09   1.046779E-09   3.337638E+02
  3.329700E-09   1.051820E-09   3.340271E+02
  3.340240E-09   1.056878E-09   3.342904E+02
  3.350799E-09   1.061953E-09   3.345538E+02
  3.361378E-09   1.067045E-09   3.348171E+02
  3.371974E-09   1.072154E-09   3.350804E+02
  3.382589E-09   1.077280E-09   3.353438E+02
  3.393223E-09   1.082423E-09   3.356071E+02
  3.403875E-09   1.087583E-09   3.358705E+02
  3.414547E-09   1.092761E-09   3.361338E+02
  3.425238E-09   1.097955E-09   3.363971E+02
  3.435947E-09   1.103166E-09   3.366605E+02
  3.446675E-09   1.108395E-09   3.369238E+02
  3.457422E-09   1.113641E-09   3.371871E+02
  3.468188E-09   1.118905E-09   3.374505E+02
  3.478972E-09   1.124185E-09   3.377138E+02
  3.489775E-09   1.129483E-09   3.379771E+02
  3.500597E-09   1.134798E-09   3.382405E+02
  3.511438E-09   1.140131E-09   3.385038E+02
  3.522296E-09   1.145481E-09   3.387672E+02
  3.533175E-09   1.150848E-09   3.390305E+02
  3.544072E-09   1.156233E-09   3.392938E+02
  3.554988E-09   1.161636E-09   3.395572E+02
  3.565922E-09   1.167056E-09   3.398205E+02
  3.576876E-09   1.172493E-09   3.400838E+02
  3.587848E-09   1.177948E-09   3.403472E+02
  3.598838E-09   1.183421E-09   3.406105E+02
  3.609848E-09   1.188911E-09   3.408738E+02
  3.620876E-09   1.194419E-09   3.411372E+02
  3.631923E-09   1.199944E-09   3.414005E+02
  3.642989E-09   1.205488E-09   3.416638E+02
  3.654074E-09   1.211049E-09   3.419272E+02
  3.665177E-09   1.216627E-09   3.421905E+02
  3.676299E-09   1.222224E-09   3.424539E+02
  3.687441E-09   1.227838E-09   3.427172E+02
  3.698599E-09   1.233471E-09   3.429805E+02
  3.709778E-09   1.239121E-09   3.432439E+02
  3.720976E-09   1.244788E-09   3.435072E+02
  3.732191E-09   1.250475E-09   3.437705E+02
  3.743426E-09   1.256178E-09   3.440339E+02
  3.754679E-09   1.261900E-09   3.442972E+02
  3.765951E-09   1.267640E-09   3.445605E+02
  3.777242E-09   1.273398E-09   3.448239E+02
  3.788552E-09   1.279173E-09   3.450872E+02
  3.799880E-09   1.284967E-09   3.453506E+02
  3.811228E-09   1.290780E-09   3.456139E+02
  3.822594E-09   1.296610E-09   3.458772E+02
  3.833978E-09   1.302458E-09   3.461406E+02
  3.845382E-09   1.308324E-09   3.464039E+02
  3.856803E-09   1.314209E-09   3.466672E+02
  3.868244E-09   1.320112E-09   3.469306E+02
  3.879704E-09   1.326033E-09   3.471939E+02
  3.891183E-09   1.331973E-09   3.474572E+02
  3.902679E-09   1.337931E-09   3.477206E+02
  3.914195E-09   1.343906E-09   3.479839E+02
  3.925730E-09   1.349901E-09   3.482473E+02
  3.937283E-09   1.355914E-09   3.485106E+02
  3.948856E-09   1.361945E-09   3.487739E+02
  3.960446E-09   1.367995E-09   3.490373E+02
  3.972056E-09   1.374063E-09   3.493006E+02
  3.983684E-09   1.380150E-09   3.495639E+02
  3.995331E-09   1.386256E-09   3.498273E+02
  4.006996E-09   1.392379E-09   3.500906E+02
  4.018680E-09   1.398522E-09   3.503539E+02
  4.030383E-09   1.404682E-09   3.506173E+02
  4.042105E-09   1.410862E-09   3.508806E+02
  4.053847E-09   1.417060E-09   3.511440E+02
  4.065605E-09   1.423277E-09   3.514073E+02
  4.077384E-09   1.429513E-09   3.516706E+02
  4.089179E-09   1.435768E-09   3.519340E+02
  4.100995E-09   1.442041E-09   3.521973E+02
  4.112829E-09   1.448333E-09   3.524606E+02
  4.124682E-09   1.454643E-09   3.527240E+02
  4.136554E-09   1.460973E-09   3.529873E+02
  4.148444E-09   1.467321E-09   3.532506E+02
  4.160353E-09   1.473689E-09   3.535140E+02
  4.172280E-09   1.480075E-09   3.537773E+02
  4.184226E-09   1.486480E-09   3.540406E+02
  4.196191E-09   1.492904E-09   3.543040E+02
  4.208175E-09   1.499347E-09   3.545673E+02
  4.220177E-09   1.505809E-09   3.548307E+02
  4.232198E-09   1.512291E-09   3.550940E+02
  4.244237E-09   1.518791E-09   3.553573E+02
  4.256296E-09   1.525310E-09   3.556207E+02
  4.268372E-09   1.531849E-09   3.558840E+02
  4.280469E-09   1.538406E-09   3.561473E+02
  4.292584E-09   1.544982E-09   3.564107E+02
  4.304716E-09   1.551579E-09   3.566740E+02
  4.316868E-09   1.558194E-09   3.569373E+02
  4.329039E-09   1.564829E-09   3.572007E+02
  4.341227E-09   1.571482E-09   3.574640E+02
  4.353435E-09   1.578155E-09   3.577274E+02
  4.365662E-09   1.584847E-09   3.579907E+02
  4.377907E-09   1.591558E-09   3.582540E+02
  4.390170E-09   1.598290E-09   3.585174E+02
  4.402453E-09   1.605040E-09   3.587807E+02
  4.414754E-09   1.611810E-09   3.590440E+02
  4.427073E-09   1.618599E-09   3.593074E+02
  4.439412E-09   1.625408E-09   3.595707E+02
  4.451769E-09   1.632236E-09   3.598340E+02
  4.464144E-09   1.639083E-09   3.600974E+02
  4.476538E-09   1.645950E-09   3.603607E+02
  4.488951E-09   1.652837E-09   3.606241E+02
  4.501382E-09   1.659743E-09   3.608874E+02
  4.513832E-09   1.666670E-09   3.611507E+02
  4.526301E-09   1.673614E-09   3.614141E+02
  4.538788E-09   1.680580E-09   3.616774E+02
  4.551294E-09   1.687565E-09   3.619407E+02
  4.563819E-09   1.694570E-09   3.622041E+02
  4.576362E-09   1.701594E-09   3.624674E+02
  4.588924E-09   1.708638E-09   3.627307E+02
  4.601505E-09   1.715702E-09   3.629941E+02
  4.614103E-09   1.722786E-09   3.632574E+02
  4.626721E-09   1.729889E-09   3.635208E+02
  4.639357E-09   1.737013E-09   3.637841E+02
  4.652011E-09   1.744156E-09   3.640474E+02
  4.664685E-09   1.751318E-09   3.643108E+02
  4.677377E-09   1.758502E-09   3.645741E+02
  4.690087E-09   1.765704E-09   3.648374E+02
  4.702815E-09   1.772928E-09   3.651008E+02
  4.715563E-09   1.780171E-09   3.653641E+02
  4.728330E-09   1.787434E-09   3.656274E+02
  4.741115E-09   1.794717E-09   3.658908E+02
  4.753918E-09   1.802020E-09   3.661541E+02
  4.766739E-09   1.809344E-09   3.664174E+02
  4.779580E-09   1.816686E-09   3.666808E+02
  4.792439E-09   1.824050E-09   3.669441E+02
  4.805317E-09   1.831433E-09   3.672075E+02
  4.818212E-09   1.838838E-09   3.674708E+02
  4.831128E-09   1.846261E-09   3.677341E+02
  4.844060E-09   1.853706E-09   3.679975E+02
  4.857013E-09   1.861171E-09   3.682608E+02
  4.869983E-09   1.868655E-09   3.685241E+02
  4.882971E-09   1.876160E-09   3.687875E+02
  4.895979E-09   1.883685E-09   3.690508E+02
  4.909004E-09   1.891232E-09   3.693141E+02
  4.922049E-09   1.898798E-09   3.695775E+02
  4.935111E-09   1.906385E-09   3.698408E+02
  4.948193E-09   1.913991E-09   3.701042E+02
  4.961293E-09   1.921619E-09   3.703675E+02
  4.974412E-09   1.929267E-09   3.706308E+02
  4.987549E-09   1.936935E-09   3.708942E+02
  5.000703E-09   1.944623E-09   3.711575E+02
  5.013877E-09   1.952333E-09   3.714208E+02
  5.027070E-09   1.960063E-09   3.716842E+02
  5.040280E-09   1.967813E-09   3.719475E+02
  5.053509E-09   1.975585E-09   3.722108E+02
  5.066758E-09   1.983377E-09   3.724742E+02
  5.093265E-09   1.998997E-09   3.730000E+02
